Version=2.1.0.14
Date=06.05.2016 11:41:37
Type=foo
Inspector=
Remark=
IMax [A]=5
UMax [V]=50
TMax [Âµs]=100
P-Factor for L-values=0
P-Factor for LSUdt-values=0
P-Factor for SUdt-values=0
MeasCount=1
LowLimitI=
UppLimitI=
LowLimitSUdt=
UppLimitSUdt=
Serialpoints=
Divisor for L-values=1000000
Divisor for LSUdt-values=1000000
DigitsI_inc=2
DigitsSUdt_inc=0
DigitsI_sec=2
DigitsSUdt_sec=0
Ohmic resistance[Ohm]=0.2023
Serial-No.=
DPG10 L_inc(I)
;
;
;
;
0.25;137.102
0.30;137.756
0.35;137.9878
0.40;137.4489
0.45;137.9692
0.50;138.832
0.55;139.6832
0.60;139.3316
0.65;138.8455
0.70;138.461
0.75;138.649
0.80;138.5057
0.85;138.8541
0.90;138.689
0.95;138.7219
1.00;137.8271
1.05;137.6815
1.10;137.0918
1.15;137.2209
1.20;136.6025
1.25;136.8542
1.30;137.0282
1.35;136.8775
1.40;136.3299
1.45;135.4548
1.50;135.0466
1.55;134.2076
1.60;134.497
1.65;134.5565
1.70;133.0759
1.75;131.7955
1.80;130.4676
1.85;130.4269
1.90;129.2524
1.95;128.4621
2.00;126.8568
2.05;125.9252
2.10;124.822
2.15;123.8328
2.20;122.554
2.25;120.2069
2.30;118.7336
2.35;116.7979
2.40;115.2494
2.45;113.6834
2.50;111.9591
2.55;110.3461
2.60;108.1455
2.65;105.9238
2.70;103.5433
2.75;101.0532
2.80;98.58673
2.85;96.14955
2.90;93.38979
2.95;90.79746
3.00;87.98296
3.05;85.27451
3.10;82.42784
3.15;79.49828
3.20;76.39146
3.25;73.20793
3.30;69.96545
3.35;66.68591
3.40;63.42931
3.45;60.31433
3.50;57.35734
3.55;54.42065
3.60;51.83599
3.65;49.27447
3.70;46.78529
3.75;44.63013
3.80;42.67269
3.85;40.83729
3.90;39.09825
3.95;37.47876
4.00;36.075
4.05;34.7973
4.10;33.61812
4.15;32.50345
4.20;31.52641
4.25;30.62112
4.30;29.78428
4.35;28.97752
4.40;28.22199
4.45;27.52004
4.50;26.88072
4.55;26.25555
4.60;25.68259
4.65;25.13874
4.70;24.63336
4.75;24.16085
4.80;23.70516
4.85;23.28595
4.90;22.87917
4.95;22.47524
;
DPG10 L_inc(SUdt)
;
;
30;137.9627
40;137.4599
50;137.8065
60;139.3916
70;139.4934
80;138.7258
90;138.2116
100;138.5024
110;138.6181
120;138.7035
130;137.9093
140;137.3283
150;137.1917
160;136.8018
170;136.9401
180;136.7603
190;135.3256
200;134.5306
210;134.4594
220;133.5975
230;131.7935
240;130.3834
250;129.1791
260;127.3738
270;125.9701
280;123.7526
290;121.8574
300;118.669
310;115.7008
320;112.8555
330;109.6424
340;105.7751
350;101.0144
360;96.10663
370;90.38857
380;84.20899
390;76.90778
400;68.34031
410;58.58094
420;48.68286
430;39.63771
440;32.31866
450;26.98054
460;22.99285
470;19.83504
480;17.315
490;15.14307
500;13.31911
510;11.64192
520;10.1986
;
;
;
;
;
;
;
;
;
;
;
;
;
;
;
;
;
;
;
;
;
;
;
;
;
;
;
;
;
;
;
;
;
;
;
;
;
;
;
;
;
;
;
;
;
;
;
;
DPG10 L_sec(I)
;
;
;
0.20;123.3325
0.25;125.9893
0.30;128.1576
0.35;129.4256
0.40;130.4686
0.45;131.249
0.50;131.9176
0.55;132.6541
0.60;133.2658
0.65;133.7745
0.70;134.0247
0.75;134.3628
0.80;134.6134
0.85;134.8731
0.90;135.0437
0.95;135.2551
1.00;135.3849
1.05;135.5684
1.10;135.6181
1.15;135.6862
1.20;135.7299
1.25;135.7829
1.30;135.8142
1.35;135.8676
1.40;135.9002
1.45;135.9143
1.50;135.8466
1.55;135.81
1.60;135.7791
1.65;135.7674
1.70;135.6999
1.75;135.6068
1.80;135.4869
1.85;135.3408
1.90;135.2092
1.95;135.047
2.00;134.8475
2.05;134.6688
2.10;134.4208
2.15;134.217
2.20;133.957
2.25;133.6902
2.30;133.3855
2.35;133.0398
2.40;132.686
2.45;132.3071
2.50;131.9311
2.55;131.5264
2.60;131.094
2.65;130.6554
2.70;130.1748
2.75;129.6652
2.80;129.1388
2.85;128.5828
2.90;128.0068
2.95;127.3986
3.00;126.7641
3.05;126.1157
3.10;125.4402
3.15;124.7421
3.20;124.0184
3.25;123.2733
3.30;122.4944
3.35;121.698
3.40;120.8771
3.45;120.0293
3.50;119.164
3.55;118.2785
3.60;117.378
3.65;116.4724
3.70;115.561
3.75;114.6356
3.80;113.705
3.85;112.7761
3.90;111.8432
3.95;110.9124
4.00;109.9883
4.05;109.0695
4.10;108.1607
4.15;107.2556
4.20;106.3596
4.25;105.4708
4.30;104.5959
4.35;103.7311
4.40;102.8783
4.45;102.035
4.50;101.2023
4.55;100.3822
4.60;99.57528
4.65;98.7779
4.70;97.99185
4.75;97.21739
4.80;96.45358
4.85;95.70144
4.90;94.96092
4.95;94.23064
5.00;93.51083
DPG10 L_sec(SUdt)
;
20;121.0085
30;125.4632
40;128.448
50;130.1715
60;131.3526
70;132.3806
80;133.2686
90;133.8963
100;134.3124
110;134.6708
120;135.0013
130;135.2924
140;135.5446
150;135.6405
160;135.7202
170;135.7865
180;135.8618
190;135.9007
200;135.9165
210;135.8169
220;135.7656
230;135.7021
240;135.56
250;135.3449
260;135.15
270;134.8396
280;134.5064
290;134.1633
300;133.7296
310;133.1877
320;132.5864
330;131.9198
340;131.1606
350;130.2972
360;129.3127
370;128.1593
380;126.8072
390;125.2511
400;123.4002
410;121.1328
420;118.2422
430;114.5861
440;109.9643
450;104.4549
460;98.34466
470;91.92602
480;85.42686
490;79.02942
500;72.81902
510;66.8635
520;61.1505
530;55.73317
;
;
;
;
;
;
;
;
;
;
;
;
;
;
;
;
;
;
;
;
;
;
;
;
;
;
;
;
;
;
;
;
;
;
;
;
;
;
;
;
;
;
;
;
;
;
;
